#lambda/nm	DC	C1
208.295	470.8	471.2
208.67	432.2	436.4
209.045	395.8	398
209.419	402.6	401.8
209.794	576.6	579.2
210.169	554.4	570
210.544	701.8	695.6
210.919	610	614
211.295	592	602.4
211.67	610.4	604.8
212.045	602	603.4
212.421	611.8	609.6
212.796	638.8	642.4
213.172	598.6	604.6
213.547	604.8	616.2
213.923	602.4	607.2
214.299	606.8	610
214.675	623	611.8
215.051	606.8	607.6
215.427	616	624
215.803	635	633.4
216.179	624.2	627.4
216.555	615.4	621.6
216.932	630.2	635.6
217.308	629.6	640.4
217.684	629.6	629
218.061	630.8	635.4
218.438	640.4	634.2
218.814	637.6	632
219.191	644.4	650.8
219.568	639.8	630.4
219.945	640.4	637.6
220.322	647	656.6
220.699	645.6	651.8
221.076	661.8	653.2
221.453	654.4	658.2
221.83	646.4	645.6
222.208	650.2	654.4
222.585	646	643
222.962	661	657.2
223.34	662.6	662.8
223.717	651.4	664.4
224.095	658.2	662.6
224.473	664.6	664.8
224.851	658.4	662.8
225.229	654.8	659.2
225.607	688.8	670.8
225.985	658	661.2
226.363	673.6	677.2
226.741	671.6	678
227.119	674.6	675.8
227.497	689	695
227.876	666	665.8
228.254	685.8	686
228.633	692.4	681.8
229.011	677.2	697.4
229.39	692.8	691.2
229.769	708	698.2
230.148	699.6	704.4
230.527	714.8	716
230.905	704.6	696.8
231.284	710	711
231.664	696.6	703.4
232.043	726.8	718
232.422	724	717.4
232.801	708.6	714.4
233.181	722.8	724.8
233.56	721.2	725.2
233.94	722.8	733.2
234.319	711	724.4
234.699	733.8	734.8
235.079	769.6	783
235.458	767.4	784.8
235.838	770.2	768.2
236.218	738.2	742.8
236.598	752	757.2
236.978	753.2	753.2
237.358	758.8	766.6
237.738	766	754.2
238.119	768.8	772.2
238.499	763.8	767.8
238.88	775.4	776
239.26	794.8	809.6
239.641	771.6	777.2
240.021	782.2	782
240.402	798.4	792.8
240.783	791.6	792.6
241.163	800	797.6
241.544	802	801.4
241.925	803.4	808
242.306	819.4	820.2
242.687	802.2	800.2
243.069	801.6	794.6
243.45	807	801.6
243.831	791.6	786.2
244.212	784.2	778.6
244.594	830.4	823.4
244.975	788.8	795
245.357	788.4	774.4
245.739	768.4	754.6
246.12	764	762.4
246.502	769.4	767.4
246.884	739.2	737.2
247.266	737.6	733.8
247.648	736.4	741
248.03	753.6	751
248.412	729.4	724.2
248.794	725.4	709.8
249.176	713	699.4
249.559	708.4	722
249.941	697.8	682.8
250.323	683.4	683.8
250.706	680	673.2
251.089	686	675.6
251.471	677.6	673.6
251.854	676.8	669.8
252.237	669.2	665.2
252.62	676	667
253.002	655	652.6
253.385	647.8	646.4
253.769	658	658
254.152	635.4	642.4
254.535	649.6	638
254.918	626.4	628.6
255.301	630.6	633.6
255.685	623	633.2
256.068	612.6	619.2
256.452	642.4	648.8
256.835	630.8	623.8
257.219	624.4	620.4
257.603	627.6	627.8
257.986	607	612.8
258.37	618.6	623.2
258.754	606.8	616
259.138	613.6	625.2
259.522	615.8	628.2
259.906	611.6	610.8
260.29	615	612.4
260.675	608.8	614.2
261.059	603.6	612
261.443	602.8	607.2
261.828	618.8	615.4
262.212	621.2	612.8
262.597	601	603.4
262.981	614.2	611.8
263.366	614.6	620.6
263.751	619.8	619.2
264.136	600.8	602.6
264.521	607.2	612.4
264.906	607	609
265.291	612	622.6
265.676	607	603.6
266.061	624.2	624.2
266.446	633.2	627.6
266.831	616.4	618.8
267.217	626.2	631
267.602	624.4	614.6
267.987	611	614
268.373	608.2	605.2
268.759	627.4	619.2
269.144	615.6	616
269.53	608	601.6
269.916	610.6	608
270.302	620.8	611.2
270.688	613.4	618
271.074	606	616.8
271.46	620.4	627
271.846	633	633.4
272.232	610.4	608.6
272.618	608	606
273.004	613.8	605
273.391	628.2	621.8
273.777	616.6	622.8
274.164	618.8	614.6
274.55	625.4	620.2
274.937	610.2	614.6
275.324	604	607
275.71	617.8	622.6
276.097	620.6	612.6
276.484	611.8	608.8
276.871	620.6	609.6
277.258	622	619.6
277.645	599.6	598.8
278.032	613.2	605.8
278.419	598.8	609.2
278.807	616	620.2
279.194	603	611
279.581	605	599.4
279.969	616.6	623
280.356	609.2	618
280.744	617.2	615
281.131	639.6	636
281.519	626.4	621.4
281.907	621.4	614
282.295	603.8	609.2
282.682	616.8	626.6
283.07	607.8	615.2
283.458	618.2	614.6
283.846	622.4	620
284.235	617.2	615.8
284.623	629.2	625.6
285.011	606.4	598.6
285.399	610.4	610.4
285.788	611	612.6
286.176	609.8	601.4
286.565	629.4	625
286.953	610.2	605.4
287.342	616.6	606.2
287.731	606.8	610.8
288.119	611.8	598.2
288.508	612.4	601
288.897	610.8	618.4
289.286	604.8	603.4
289.675	615	612.6
290.064	617.4	613.8
290.453	609.2	603
290.821	605.6	613.6
291.21	627.4	622.4
291.599	610	604
291.989	620.6	615.8
292.378	617.4	621.8
292.768	625	634.4
293.157	618.2	617
293.547	625.8	616.6
293.936	623.6	606.8
294.326	608.6	597.2
294.716	615	618.4
295.106	605.4	619.8
295.496	614.6	620.2
295.886	629.6	611.4
296.276	614.4	618
296.666	616.6	608
297.056	606.2	604.4
297.446	602.2	604.6
297.836	626	625.6
298.227	608	617.4
298.617	615.6	618.8
299.008	615.6	627.6
299.398	614.4	612.2
299.789	602.6	612.4
300.179	623.8	616.8
300.57	623.4	629.8
300.961	607.6	611.6
301.352	604.2	610.6
301.742	621.4	617.4
302.133	622	618
302.524	615	613.4
302.915	611.4	610.6
303.307	609.8	606.2
303.698	629.4	628.6
304.089	612.4	617
304.48	619.6	618
304.872	616.4	628.4
305.263	616.2	614.6
305.655	606	606.2
306.046	622.2	625.4
306.438	623.4	619.8
306.829	610.4	612.4
307.221	623.8	631.8
307.613	623.2	624.4
308.005	631	619.8
308.397	636	629.8
308.789	635.6	639
309.181	627.4	633.8
309.573	633.6	627.2
309.965	622.8	622.8
310.357	615.4	611.8
310.749	625.8	625.8
311.142	613.4	611
311.534	610.8	606.6
311.926	624.2	622.4
312.319	608.8	612.8
312.711	612.6	605
313.104	619.8	628.6
313.497	623.4	612.4
313.889	652.2	649.4
314.282	625.4	629.4
314.675	635.6	641.4
315.068	623.6	612.8
315.461	622.4	618.4
315.854	634	647
316.247	616.6	620.4
316.64	616.4	610.2
317.033	612.8	614.4
317.405	618.6	621.8
317.798	619.8	615
318.192	615.6	611.2
318.585	596.8	611.6
318.979	626.4	617
319.372	601	612.4
319.766	611	613.8
320.16	627.2	626.8
320.553	629.4	626
320.947	636.2	636.8
321.341	613.6	615.8
321.735	612.6	614.4
322.129	610.8	603.4
322.523	633.6	642.6
322.917	611.4	605.8
323.311	622.4	628.6
323.705	623.2	614.4
324.099	618.4	607.4
324.494	630	635.8
324.888	624.4	627.6
325.282	616.6	610.4
325.677	633.2	627
326.071	625.8	618.4
326.466	623.6	631.4
326.861	623.4	619
327.255	630.8	623.8
327.65	618.6	629
328.045	633.2	633
328.44	614.2	619.2
328.835	608.4	610.2
329.23	608.6	619.8
329.625	641.8	638.4
330.02	611	612.4
330.415	638.8	624.8
330.81	624.8	614.8
331.206	610.6	620.2
331.601	612	621
331.996	629.6	627
332.37	633	635
332.766	613.8	609.2
333.161	642.6	633.8
333.557	607.2	618.2
333.953	609	611.4
334.348	1017.8	1014
334.744	616.8	612
335.14	610	613.2
335.536	612.6	611.4
335.932	627.2	627.8
336.328	610.8	605.2
336.724	624.8	621.8
337.12	618.4	617.6
337.516	618.2	623.2
337.913	620.2	614.4
338.309	623.8	635.4
338.705	612.4	615
339.102	612	635.2
339.498	615.6	611.8
339.895	626.4	634.4
340.291	610.6	606
340.688	628.6	630.4
341.085	615.6	613.2
341.481	610.2	612.2
341.878	617	614.6
342.275	640.2	634.6
342.672	602.6	616.4
343.069	612.8	609.2
343.466	603	604.4
343.842	629.8	620.4
344.239	607.6	600.6
344.636	623.2	610.8
345.033	606.6	610
345.431	607.8	605.6
345.828	615.6	613.4
346.225	611.2	608.2
346.623	632.2	619.2
347.02	615.2	615.8
347.418	623.8	627.2
347.816	633	628
348.213	613.2	597.8
348.611	615	621.2
349.009	606.4	610.2
349.407	621.4	620.8
349.805	603.8	605.6
350.203	594.4	601
350.601	626	620.6
350.999	613.4	609.6
351.397	642.8	649.8
351.795	620.4	616
352.193	628.8	622.4
352.57	622.6	625.6
352.969	624.6	627.8
353.367	607.4	610.4
353.766	605	612.8
354.164	616.8	606.6
354.563	611	627.8
354.961	602.4	608.6
355.36	601.4	613.6
355.759	616.4	616.2
356.158	607.8	607.8
356.557	605.8	608.2
356.956	594	610.8
357.355	602.2	609.6
357.754	622.2	612.8
358.153	615.2	627.6
358.552	635	630.8
358.951	614	609.4
359.35	624.8	621.4
359.75	610.2	613.6
360.149	616.2	606.6
360.527	599.6	597.8
360.926	609.2	603.6
361.326	611.6	619.4
361.726	618.2	614.6
362.125	613.8	606.8
362.525	628.6	627.2
362.925	617	611.6
363.325	621.8	617.2
363.724	618.2	620.6
364.124	606.4	604.4
364.524	606	605.4
364.924	610.6	617.8
365.324	622.6	627.2
365.725	591.4	602.8
366.125	618.6	619.8
366.525	619.8	610.2
366.904	605.2	612
367.304	595.4	593.4
367.705	625.2	625.8
368.105	622.4	622.2
368.506	615.2	612.8
368.906	610.8	614.6
369.307	613.6	619
369.708	622.2	624.8
370.108	607.8	601
370.509	626.6	622
370.91	602.4	605.6
371.311	621.2	612.8
371.712	615.6	619.2
372.113	609.4	617.2
372.514	596.6	613.2
372.894	616.2	615
373.295	609.2	617.2
373.696	624.8	618
374.097	623.6	625.2
374.499	635.6	645
374.9	618.4	619.8
375.301	610.2	610.2
375.703	614.8	614.8
376.105	607.2	600
376.506	616.2	622.8
376.908	606.8	612
377.309	611.6	617.4
377.711	610.2	614.4
378.113	610	615.4
378.493	617.6	613.4
378.895	608.4	610.2
379.297	625.6	616
379.699	608.2	602.8
380.102	626.8	617.4
380.504	619.2	611.8
380.906	620.8	616
381.308	645.6	626.4
381.71	618	617.8
382.113	623.6	623.2
382.515	617.2	605.2
382.918	614.2	616
383.299	609.8	618
383.701	629.4	618.8
384.104	623.8	621.6
384.507	599.4	594.6
384.909	614.2	618.4
385.312	600	607.6
385.715	609.2	612
386.118	619.4	611.8
386.521	614.8	601.4
386.924	621.4	633.4
387.327	616.6	606.6
387.709	601	619.4
388.112	611.8	599.2
388.515	621.6	616.6
388.918	614.2	609.4
389.322	632.4	629.8
389.725	618.8	613
390.129	640.4	641.6
390.532	622.8	634.6
390.936	615	621.4
391.339	611.2	614.4
391.743	620.6	620.2
392.125	613.4	615.8
392.529	638.8	635.6
392.933	633.8	638.8
393.337	615.6	620
393.74	620.8	622.4
394.144	618.4	617.2
394.548	611.6	621.2
394.953	613.6	620.6
395.357	623.4	629.2
395.761	622	622.4
396.144	623.8	623.2
396.548	619.8	628.8
396.952	628.2	629
397.357	617.8	623
397.761	626.4	613.6
398.166	618.4	620.8
398.57	624.8	621.6
398.975	620.8	621.2
399.379	626.4	621.8
399.763	670.6	668
400.168	630.6	632.8
400.572	634	637.2
400.977	628.8	627.4
401.382	650.6	655.4
401.787	641.8	649.2
402.192	649.6	654
402.597	644	656
403.002	626.4	632.6
403.386	648.8	658.8
403.791	661.6	663.6
404.197	647	644.4
404.602	651.4	657.8
405.007	653	660
405.413	654.6	663.2
405.818	659.4	661.8
406.224	661.4	663.2
406.608	666.4	670.6
407.014	658.8	672.6
407.42	688.6	700.6
407.825	677.8	687.4
408.231	699.6	702.2
408.637	696.8	713.2
409.043	721	716.8
409.449	721	717.6
409.834	722.6	718
410.24	742.6	747.8
410.646	761	750.6
411.052	775.6	771.2
411.458	769.2	781
411.865	801.6	803.6
412.271	818	828.2
412.677	816.4	819.2
413.062	839.6	841.8
413.469	849.2	849.8
413.875	898.4	914.6
414.282	923.6	918.4
414.689	939.4	932.8
415.095	969.8	968.2
415.502	980.8	984.8
415.888	1006.4	1009.8
416.294	1025.4	1038.4
416.701	1118.4	1135
417.108	1115.8	1117.4
417.515	1160.4	1164.2
417.923	1196	1185.4
418.33	1261.6	1242.8
418.715	1272.8	1279.4
419.123	1321.6	1333.6
419.53	1378.8	1370.8
419.937	1426	1429.4
420.345	1490.4	1486.6
420.752	1539.2	1539
421.16	1620	1603
421.546	1645.8	1679.8
421.953	1733.6	1722.8
422.361	1788.4	1784.2
422.769	1860.2	1871
423.177	1941.4	1937.2
423.585	2048.8	2040.8
423.992	2145	2128.2
424.379	2204.8	2202.6
424.787	2302.2	2328
425.195	2405.6	2405
425.603	2495.8	2532.2
426.011	2626.2	2635.6
426.419	2763.6	2745.8
426.806	2842.8	2888.6
427.214	2989.2	2993.8
427.623	3147.2	3144.6
428.031	3296.6	3296.4
428.44	3450.6	3468.8
428.848	3606	3616.2
429.235	3804.4	3790.6
429.644	3967	3986.6
430.053	4154.2	4147
430.461	4402	4383.6
430.87	4580.8	4616
431.279	4782.8	4809.2
431.666	5003.8	5036
432.075	5260.8	5279
432.484	5518	5551.6
432.893	5726.6	5783.4
433.302	6050.8	6072
433.711	6325.8	6384.8
434.099	6575.8	6660.4
434.508	6894.2	6985.4
434.918	7184.8	7297.4
435.327	7569.8	7681
435.737	7951	7989.8
436.125	8242	8341
436.534	8617.4	8750
436.944	8991.6	9132.8
437.353	9418.2	9510.2
437.763	9863	9974.8
438.173	10244	10355.4
438.561	10681.2	10853.6
438.971	11114.2	11278.8
439.381	11629.6	11779.2
439.791	12131.6	12243.6
440.201	12598.2	12793.6
440.589	13151.2	13377.4
440.999	13697	13904.6
441.409	14317.4	14536.8
441.819	14881.6	15079.8
442.23	15607	15744.4
442.619	16189	16469.2
443.029	16914.6	17216.8
443.439	17716.4	17888.6
443.85	18494.4	18710.8
444.26	19287.6	19496.4
444.649	20180.4	20375.6
445.06	21144.4	21316.8
445.471	22043	22283.6
445.881	23049.6	23249.4
446.292	24115.2	24321
446.682	25189.8	25367.6
447.092	26223.6	26466.6
447.503	27395.6	27676.2
447.914	28569.8	28797.8
448.325	29746.4	30038.4
448.715	31000.4	31271.2
449.126	32211.8	32488
449.537	33426.8	33598.6
449.948	34581.8	34858.4
450.338	35705.8	35893.6
450.75	36879.2	37073.2
451.161	37812.6	38135.8
451.572	38772	39108.2
451.984	39714.6	39970.8
452.374	40463.2	40653
452.786	41102.4	41332.8
453.197	41660	41901.4
453.609	42019.8	42318.2
453.999	42274.4	42587.4
454.411	42442.4	42672.2
454.823	42386	42646.8
455.235	42238.8	42503.8
455.647	41952.2	42322.4
456.037	41586.6	41775.2
456.449	40974.6	41284.8
456.862	40379.8	40725.8
457.274	39557.4	39914.2
457.665	38821.6	39072.2
458.077	37934.6	38193
458.489	37040.4	37323.8
458.902	35972.6	36315.4
459.293	35016	35276.2
459.705	33987.6	34360.2
460.118	32994.4	33292.6
460.53	32064.6	32377.4
460.921	31105.8	31379.6
461.334	30253.4	30457.8
461.747	29312	29650.4
462.16	28578.4	28855.4
462.551	27782.8	28119.2
462.964	27009.2	27385
463.377	26423.4	26787
463.79	25882.6	26157.2
464.182	25258.8	25630.6
464.595	24840.2	25171.8
465.008	24337.2	24641.6
465.421	23821.8	24160.8
465.813	23559.8	23812.4
466.226	23135.4	23423.8
466.64	22777.2	23088
467.053	22487	22704.4
467.445	22067.6	22371.4
467.859	21662	22088
468.272	21455.2	21673.6
468.686	21001.2	21402.2
469.078	20660.4	21060.4
469.492	20315.4	20634.2
469.906	20007.4	20282.2
470.298	19618.8	19930.6
470.712	19245.2	19524.2
471.126	18869	19201.2
471.54	18452	18758.2
471.933	18050	18280
472.347	17652.8	17979.8
472.761	17251.2	17589.4
473.175	16794.4	17143
473.568	16456.4	16774.6
473.982	16058.4	16307.8
474.397	15716.2	15990.2
474.79	15323.2	15636.8
475.204	14975.4	15291.8
475.619	14601.6	14920
476.033	14359.8	14620.8
476.426	14013.2	14289
476.841	13800.8	14019.6
477.256	13566.6	13830.2
477.649	13254.2	13597.6
478.064	13073.8	13415.8
478.479	12872.6	13193
478.872	12750.6	13034
479.287	12624.8	12891.4
479.702	12532.8	12832
480.118	12426	12715.6
480.511	12346.8	12644.8
480.927	12320.8	12625.4
481.342	12238	12507.6
481.736	12214.8	12526.8
482.151	12194.6	12577.8
482.566	12256	12444.6
482.96	12201.4	12468
483.376	12245.8	12506
483.792	12299.4	12552.2
484.186	12329.6	12605.8
484.602	12380.2	12642.4
485.017	12407.4	12723.4
485.412	12470	12695.6
485.827	12608	12814.8
486.243	12664.8	12873.4
486.638	12744.8	13016
487.054	12760.2	13060.4
487.47	12890	13087
487.865	12907.8	13150
488.281	13047.8	13317.8
488.697	13143.2	13387.4
489.092	13260.4	13498.2
489.508	13407.4	13601
489.925	13481	13773
490.32	13637.8	13869
490.736	13777.8	14045.4
491.153	13943.4	14159.4
491.548	14117.2	14330.4
491.964	14240.4	14535.2
492.381	14396	14646.4
492.776	14635.8	14828.2
493.193	14800	15039.4
493.61	14996.4	15202.2
494.006	15235.8	15491.2
494.422	15401.2	15656.2
494.84	15664.2	15898.2
495.235	15927.4	16139.4
495.652	16133.2	16333.6
496.069	16392.4	16576.8
496.465	16631.6	16779.2
496.883	16839.2	17070.8
497.3	17212	17347.2
497.696	17355	17641.8
498.113	17677.4	17859.6
498.509	17970.6	18108.2
498.927	18194.8	18387.4
499.344	18420.6	18668.6
499.741	18685.8	18915.4
500.158	19012.8	19212.4
500.576	19237.2	19460
500.973	19603.8	19690.2
501.39	19803	20018.4
501.787	20088.4	20184.2
502.205	20363.8	20557.4
502.623	20571.6	20844.2
503.02	20921.4	21053.4
503.438	21158.8	21351.4
503.856	21421.8	21647
504.253	21629.4	21867.2
504.671	21977.2	22098.6
505.068	22127.8	22419.2
505.486	22457	22613.8
505.905	22740.6	22930.8
506.302	22996.8	23174.2
506.72	23225.8	23376.8
507.118	23524	23604
507.536	23732	23889
507.955	24049.2	24110
508.352	24183.8	24311.4
508.771	24440.4	24600.2
509.169	24725.4	24861.6
509.587	24940.4	25066.8
510.006	25116.4	25348
510.404	25375.2	25487
510.823	25653.4	25803.2
511.221	25919.2	26012.4
511.64	26093.2	26173.8
512.038	26279	26471.2
512.457	26500.8	26590.4
512.877	26732.6	26773
513.275	26947.6	27063.8
513.694	27167	27200.4
514.092	27280.2	27435.8
514.512	27595.2	27695
514.91	27764.8	27855.2
515.33	27875.2	28059
515.749	28187	28286.8
516.148	28324.4	28480
516.568	28533.8	28651.4
516.966	28789.2	28865.4
517.386	28916.4	29012.4
517.785	29104	29257.6
518.205	29351.6	29411.4
518.603	29552.8	29553
519.024	29732.6	29781.4
519.444	29817.8	29967
519.843	30037	30183.2
520.263	30156.6	30226.8
520.662	30342.2	30401.2
521.082	30527.6	30601.4
521.481	30654.4	30805.8
521.902	30840.2	31007.6
522.301	30986.6	31152.8
522.722	31186.4	31254.4
523.121	31363	31377.6
523.542	31459.6	31586
523.963	31627.2	31657
524.362	31809.4	31899.2
524.783	31799	31967.2
525.183	32027.8	32048
525.604	32143.2	32228
526.003	32275.2	32320
526.425	32381.8	32462.4
526.824	32473.6	32647.8
527.246	32634.6	32777.6
527.646	32821.6	32823.8
528.067	32888.2	32956.4
528.467	32972.8	33028.2
528.888	33093.8	33141.8
529.289	33317.8	33344.2
529.71	33443.4	33421
530.11	33505	33604
530.532	33682.4	33660
530.932	33762	33771.2
531.354	33940.6	33906.6
531.755	34069	34143.2
532.176	34143.8	34208
532.577	34270.2	34349.2
532.999	34392.4	34564.8
533.4	34591.4	34628.8
533.822	34758.6	34904.2
534.223	34901	34990
534.645	35042	35137.4
535.046	35085.4	35270.4
535.468	35386.6	35354
535.869	35511.2	35489.4
536.292	35620.4	35703.8
536.693	35919	35870
537.115	35954	35946.4
537.516	36094.8	36129.8
537.939	36311.6	36286
538.34	36392.2	36419.4
538.742	36575.6	36506.6
539.165	36638	36754.4
539.566	36880.6	36898
539.989	37014.6	37047.8
540.391	37237.8	37135.4
540.814	37318.2	37313
541.216	37522.6	37532.2
541.639	37538	37594
542.041	37773	37714.8
542.464	37910.6	37976.6
542.866	37953.2	38101.2
543.268	38173.8	38106.2
543.691	38274.6	38295.4
544.093	38389.2	38494.4
544.517	38469.6	38642.6
544.919	38614.6	38711.6
545.343	38850.8	38876.6
545.745	38938.4	38989.8
546.147	39086.2	39074
546.571	39121.2	39273.2
546.974	39275	39359.6
547.398	39486	39530.2
547.8	39603.2	39629.2
548.224	39748.8	39760.4
548.627	39893	39839.4
549.03	39997.8	40040
549.454	40193.2	40198.6
549.857	40241.8	40312.2
550.281	40327.4	40355
550.684	40514	40578.6
551.087	40555.8	40600.8
551.512	40705.2	40832.4
551.915	40926.2	40925.6
552.34	41061.2	41071.4
552.743	41131.6	41115.4
553.146	41310.8	41331.6
553.571	41355.8	41430.8
553.975	41594.8	41546.8
554.399	41663.8	41720.6
554.803	41825	41810
555.207	41872.6	41900.4
555.632	42052.4	42011.6
556.036	42235.2	42303.4
556.461	42335.2	42240.2
556.865	42457	42476.2
557.268	42581.4	42625
557.694	42767.8	42848.4
558.098	42937.8	42873.4
558.502	43053	43034.4
558.927	43111.8	43141.6
559.332	43283	43218.8
559.736	43546.4	43432.6
560.162	43488.6	43584
560.566	43741	43728.4
560.992	43852.2	43881.2
561.396	44061.2	44071.2
561.801	44179.8	44236.6
562.227	44287.6	44366.4
562.631	44484.2	44486.6
563.036	44572	44566.4
563.462	44643	44718.6
563.867	44976.2	44932.2
564.272	45103.2	45081.4
564.698	45266.8	45256.8
565.103	45339.6	45394.8
565.508	45641.4	45534.6
565.935	45825	45714.6
566.34	45907.8	45845.4
566.745	45983.4	45972.2
567.172	46237.4	46216.2
567.577	46330.2	46331
567.982	46534.8	46507
568.409	46554.8	46579.4
568.815	46691.6	46755.6
569.22	46904.4	46832.8
569.626	47072	47080.8
570.053	47144	47132.6
570.459	47349.8	47388.8
570.865	47512.8	47529.8
571.292	47577.6	47618.2
571.698	47811.4	47652.4
572.104	47863.2	47897
572.531	48006.4	48071.6
572.937	48164.4	48163.4
573.343	48226.4	48279.6
573.75	48358.6	48399.2
574.177	48548.4	48516.8
574.583	48685.6	48718.8
574.99	48799	48740
575.396	48889	48947
575.824	49102.8	49109.8
576.231	49239.8	49210
576.637	49287.2	49197
577.065	49536.2	49484.4
577.472	49569.6	49491.4
577.879	49664	49636.8
578.286	49741.6	49806.6
578.714	49918.4	49884.4
579.121	50047.8	49966.8
579.528	50198.4	50063.4
579.935	50228.8	50136.8
580.364	50309.6	50280.6
580.771	50357	50464
581.178	50429.4	50524.4
581.585	50568	50637.2
582.014	50717.8	50612.4
582.421	50821.8	50716.6
582.829	50843.8	50811.8
583.236	50912.4	50872
583.644	51024.2	50939.8
584.073	50991.6	50968.8
584.481	51058.2	51156.4
584.889	51082.2	51135.2
585.296	51277	51264.6
585.726	51324	51198
586.134	51403.6	51365.6
586.542	51405.4	51379
586.95	51501.6	51486.6
587.358	51540.2	51486.6
587.787	51651.6	51497.4
588.196	51551.2	51609.2
588.604	51692.4	51707
589.012	51713.4	51687.2
589.421	51729.8	51628
589.851	51829.6	51786.2
590.259	51712	51752.4
590.668	51804.2	51868.4
591.076	51877.6	51731.6
591.485	51829	51777.8
591.894	51835.8	51844.8
592.324	51940.6	51756.2
592.733	51872	51896.2
593.142	51881.8	51861.4
593.551	51777.8	51805.2
593.96	51818.8	51949.2
594.369	51801.4	51944.2
594.8	51940	51901.8
595.209	51803.6	51797.2
595.618	51869.8	51883.6
596.028	51833.2	51730.8
596.437	51807.6	51774.2
596.847	51809.8	51775.6
597.256	51721.4	51698.6
597.687	51668.6	51700.8
598.097	51681.6	51646.6
598.507	51642.2	51575
598.917	51508	51620.2
599.327	51531.8	51504.6
599.736	51441.4	51322.8
600.146	51379.2	51465
600.556	51362.4	51422.8
600.988	51217.8	51347
601.398	51292.6	51128.8
601.808	51105.6	51158.2
602.219	51109.2	51058.2
602.629	51040.4	50980.8
603.039	50913.6	50815.8
603.45	50807.4	50848.2
603.86	50648	50701.2
604.271	50582.4	50676.4
604.703	50492.2	50464.2
605.114	50298.6	50404.4
605.525	50337.2	50220.4
605.935	50227.2	50173.8
606.346	50194.4	50034
606.757	50035.6	50036.8
607.168	49807	49843
607.579	49768.4	49654
607.99	49698.2	49590.6
608.402	49545.4	49532.2
608.813	49458.2	49347.8
609.224	49222	49192.2
609.636	49160.6	49062.2
610.047	48991.8	48967.2
610.48	48855.6	48782.4
610.892	48683.4	48615.8
611.303	48652.4	48561.2
611.715	48444	48403
612.127	48302.4	48260.8
612.539	48066	48011.4
612.95	48043	47984
613.362	47885.4	47852.4
613.774	47621	47556.4
614.186	47500.4	47483.4
614.599	47350.2	47305.6
615.011	47191.8	47107
615.423	47009.4	46986.6
615.835	46773.2	46795.2
616.248	46593.2	46584
616.66	46288	46264.8
617.073	46194.6	46070
617.485	46031.8	45918.6
617.898	45851.8	45844.4
618.311	45586.6	45587.8
618.723	45288.4	45326.4
619.136	45254.6	45152.2
619.549	44997	44948.4
619.962	44762.8	44771.2
620.375	44556.4	44487.2
620.788	44370.6	44328.2
621.201	44155.6	44089.4
621.614	44001.2	43949.6
622.028	43728.6	43777
622.441	43533.8	43550
622.854	43300	43238.6
623.268	43051.2	43057.4
623.681	42885.2	42868
624.095	42623.8	42605.2
624.509	42449.8	42434
624.922	42254.2	42185
625.336	41867.8	41925.4
625.728	41761	41748.4
626.142	41514	41525
626.556	41307	41150.6
626.97	40963.6	41079.6
627.384	40728	40737.2
627.799	40660.2	40556.2
628.213	40294.4	40354
628.627	39993.2	40090.4
629.041	39876.6	39862
629.456	39626.6	39579.4
629.87	39393.6	39269.2
630.285	39184.4	39109.2
630.699	38938.6	38919.4
631.093	38740	38679.6
631.507	38413.4	38378.6
631.922	38221.6	38254.8
632.337	37932.6	37885.4
632.752	37573.4	37525.4
633.167	37302.8	37265.6
633.582	37018.2	36969.2
633.997	36825	36767.4
634.412	36551.8	36456.6
634.806	36291	36289.8
635.221	35967.4	36011.4
635.637	35681.2	35752.2
636.052	35459.6	35487.4
636.468	35053	35163
636.883	34809	34872.6
637.299	34525.8	34619
637.715	34225.4	34244.2
638.109	33920.8	33961.4
638.525	33680.8	33655.2
638.941	33378.2	33328.6
639.357	33001	32962
639.773	32678	32678.4
640.189	32392.4	32391
640.584	32130	32053.4
641	31736.2	31822.2
641.416	31495	31488.8
641.832	31166	31226.2
642.249	30961	30956.6
642.665	30590.4	30644.2
643.06	30342.4	30378.6
643.477	30093	30136.8
643.894	29760.8	29817.4
644.31	29559.8	29539.6
644.727	29306	29341.2
645.123	28965.2	28949.8
645.54	28621.8	28547.6
645.957	28343	28332.6
646.374	28103.2	28046
646.77	27829.6	27822.6
647.187	27698.4	27705
647.604	27404	27387.8
648.021	27222.4	27199.6
648.439	27022.2	26966.6
648.835	26707.8	26737.6
649.252	26600.2	26528.6
649.67	26341	26365
650.088	26121.6	26154.4
650.484	25873.2	25918.8
650.902	25716.4	25685.4
651.32	25512.6	25541.4
651.738	25292.2	25241.2
652.134	25070.2	25068.8
652.552	24851.8	24911.2
652.971	24665.4	24565
653.389	24418.6	24417.8
653.786	24155.8	24134.6
654.204	23966.4	23976.6
654.622	23728.8	23757
655.019	23559	23570.2
655.438	23395.2	23297.4
655.857	23178	23161.4
656.275	22958.2	22963.4
656.673	22710.6	22759.4
657.091	22570.8	22467.4
657.51	22335.8	22302.4
657.908	22134	22090.6
658.327	21917.2	21914.8
658.746	21640	21577.6
659.144	21455.4	21417.2
659.563	21197.8	21211.4
659.982	20994.8	21012.2
660.38	20692	20753.2
660.8	20501.8	20501.2
661.219	20265.4	20245
661.617	20088.6	20010.8
662.037	19806	19801
662.457	19588.2	19574.8
662.855	19338.6	19357.6
663.275	19185.4	19171.2
663.695	18892.2	18915
664.094	18726.2	18707.6
664.514	18497	18481.4
664.934	18236.8	18221.6
665.333	18017.4	18059.8
665.753	17738.6	17800
666.152	17569.2	17525.8
666.572	17248	17303
666.993	17100.6	17177.6
667.392	16913.8	16920.4
667.812	16720.6	16664
668.212	16527.2	16537.4
668.632	16280.2	16333
669.053	16095.6	16093
669.453	15888	15915.4
669.874	15664	15682.8
670.273	15494.6	15447
670.694	15250.6	15233.8
671.116	15085	15068.2
671.515	14910.2	14907.4
671.937	14684.2	14718.6
672.337	14520.4	14511.8
672.758	14314.8	14308.2
673.158	14122.6	14132.4
673.58	13987	13955.6
673.98	13785.2	13766.8
674.402	13673.8	13578.4
674.824	13474.4	13453
675.224	13287.8	13259
675.646	13104	13145.6
676.047	12965.6	12928.6
676.469	12827.8	12852.4
676.869	12672.8	12649.6
677.292	12518.4	12502.6
677.693	12369.6	12361.6
678.115	12275.8	12236.4
678.516	12124.4	12051
678.939	11948.2	11951.6
679.34	11902.6	11805
679.762	11714	11739.4
680.164	11596	11598
680.586	11461.4	11407.6
680.988	11336.4	11323
681.411	11250.4	11215.6
681.812	11098.2	11088.2
682.236	11006.6	10978.4
682.637	10892.2	10900
683.061	10694.6	10765.8
683.462	10680.8	10670.4
683.864	10555.4	10529.4
684.288	10461.4	10471.6
684.69	10396.8	10394.6
685.114	10246.4	10255.6
685.516	10168	10168.2
685.94	10082.8	10084.2
686.342	10013.6	9967
686.766	9930.2	9851.6
687.168	9783.6	9767.2
687.571	9718.4	9708.2
687.995	9622.4	9630
688.398	9544.6	9552.4
688.822	9481.8	9472.2
689.225	9414	9409.4
689.628	9376.8	9291.2
690.052	9281.6	9212.8
690.456	9165.2	9172.8
690.88	9058.2	9063.4
691.284	8948.4	9031
691.687	8914.2	8884.6
692.112	8819.8	8819.4
692.515	8752.8	8775
692.919	8665	8655.2
693.344	8584.4	8585.8
693.747	8569	8545
694.173	8411	8475.6
694.577	8375.2	8435.6
694.98	8290.8	8306.4
695.406	8254.2	8197.4
695.81	8152.4	8140.4
696.214	8059.8	8033.2
696.64	7951.4	7990.6
697.044	7898	7973.6
697.448	7858.6	7839.2
697.874	7783	7749.8
698.279	7688.2	7657
698.684	7602.8	7599.4
699.11	7519.6	7475.4
699.514	7407.6	7436.8
699.919	7367	7316.6
700.324	7271.2	7302.2
700.75	7161.2	7220.6
701.156	7109.4	7126.8
701.561	7059	7102.6
701.987	6964.4	6991.4
702.393	6933.4	6893.4
702.798	6856.4	6832.8
703.203	6756	6747
703.63	6681.4	6671.6
704.036	6595.2	6611.6
704.442	6535.4	6545.4
704.847	6462.6	6493.4
705.274	6405.4	6341
705.68	6292.6	6311
706.086	6262.6	6274.8
706.492	6149.8	6151.2
706.92	6099.4	6083.2
707.326	6038.6	6043.4
707.732	5965.2	5960.4
708.139	5907	5887.6
708.545	5827.2	5820.4
708.973	5730	5765.8
709.38	5676	5687.6
709.786	5651.6	5611.2
710.193	5583	5602.4
710.6	5514.8	5524.4
711.028	5446.6	5443.8
711.435	5397.6	5355
711.842	5298.4	5312.6
712.249	5238.4	5252.2
712.656	5206.6	5189.4
713.064	5152.6	5129.4
713.492	5071.6	5079.4
713.9	5035.8	5000.2
714.307	4991.4	4990.2
714.715	4908.6	4883.4
715.123	4864.6	4851.4
715.53	4806.8	4793.6
715.938	4751.2	4746.2
716.367	4697.4	4711
716.775	4642.6	4590.2
717.184	4592.2	4572.6
717.592	4555.6	4512.6
718	4489.6	4485.6
718.408	4466.8	4456.8
718.816	4416	4414.6
719.225	4340.2	4337.2
719.633	4284.6	4264.6
720.042	4224	4214.4
720.472	4175.6	4148.6
720.881	4139.4	4177.6
721.29	4105.4	4102.8
721.699	4012.6	4041.4
722.108	3969.6	3999.2
722.517	3934.2	3934.4
722.926	3876.8	3910.4
723.335	3850.6	3863.2
723.744	3800.2	3822.8
724.154	3754.8	3766
724.563	3690.2	3737.2
724.973	3656	3691.2
725.382	3642.4	3618.6
725.792	3575.2	3613.8
726.202	3526.6	3527.8
726.612	3540.8	3518
727.022	3468.2	3479.6
727.432	3448.6	3454
779.813	3347.2	3375.8
780.223	3385	3390
780.634	3300.2	3295.4
781.044	3260	3246.4
781.454	3206.4	3210.2
781.865	3209.2	3183.6
782.276	3103.6	3133.8
782.686	3091.6	3116.2
783.097	3052.4	3077.4
783.508	3039.2	3011.6
783.919	2974.8	2986.6
784.33	2957.8	2939.4
784.741	2932.6	2926
785.152	2864	2876.4
785.563	2842.4	2821.8
785.974	2809.8	2820.6
786.386	2787.4	2794.8
786.776	2726.6	2733.8
787.188	2687.6	2716.2
787.599	2666	2667.4
788.011	2658.4	2643.4
788.423	2624.6	2597.4
788.835	2563	2572.4
789.247	2531.4	2536.8
789.659	2514.2	2508.8
790.071	2481.8	2487.2
790.483	2498.2	2503.8
790.874	2412	2417.2
791.286	2397.2	2376.8
791.699	2383.8	2377
792.111	2336.8	2322.6
792.524	2308.8	2300.8
792.937	2280.6	2269
793.349	2242	2253.8
793.741	2231.2	2243.4
794.154	2213	2215.8
794.567	2185.2	2197
794.98	2170	2122.4
795.393	2114.2	2101.8
795.785	2101.2	2115
796.198	2103.2	2081.4
796.612	2057.2	2034.8
797.026	2044.4	2026.2
797.439	1998.6	2013.8
797.831	1995.4	1986.4
798.245	1958.2	1949.4
798.659	1963	1944.6
799.073	1917.8	1919.8
799.487	1909.2	1902.8
799.88	1869.2	1885.8
800.294	1856.2	1861.8
800.708	1858	1859.8
801.123	1829.2	1822.6
801.516	1819.6	1794.6
801.93	1785	1779.8
802.345	1764.2	1753.4
802.76	1737.8	1743.2
803.153	1726.2	1744
803.568	1720.6	1728.8
803.983	1680.6	1685.8
804.377	1681.6	1667
804.792	1640.4	1635.2
805.207	1629	1624.2
805.601	1635.6	1617
806.016	1631	1632.4
806.432	1569	1581.4
806.826	1606.8	1599.4
807.242	1572	1572.6
807.658	1540	1542.2
808.052	1537	1518.6
808.468	1532.2	1507.2
808.884	1489.6	1491.4
809.279	1503	1497.8
809.695	1482.4	1485
810.111	1477	1472
810.506	1452	1454.8
810.922	1439.6	1457.6
811.339	1413.6	1418.8
811.734	1414.2	1417.6
812.151	1397.4	1409.4
812.546	1375.4	1371.6
812.963	1355.4	1356.2
813.38	1359.2	1370
813.776	1356.4	1335
814.193	1358.2	1340.4
814.589	1300.6	1308
815.006	1311.6	1297.8
815.402	1295.2	1286.4
815.82	1278.2	1290.2
816.237	1292.4	1283.4
816.633	1270.2	1269.4
817.051	1249.6	1255.6
817.448	1252.4	1247.4
817.866	1224.4	1210.8
818.262	1246.6	1247
818.68	1217	1217.4
819.077	1205.6	1198.4
819.495	1214.4	1201
819.892	1218	1222.6
820.311	1165.4	1168.6
820.708	1171.4	1154.4
821.127	1163.2	1163
821.524	1162.4	1162.8
821.943	1145.4	1150
822.34	1161.6	1146.6
822.759	1116.6	1127.4
823.157	1115.6	1130
823.576	1126.2	1123.4
823.974	1111.6	1112.8
824.393	1178.6	1175.6
824.791	1094	1080.6
825.189	1080	1077.8
825.609	1067.6	1062.8
826.007	1066.6	1068.2
826.427	1056.4	1052
826.826	1069.6	1048.4
827.246	1045.4	1052.6
827.644	1035.6	1035
828.043	1043.6	1041.8
828.463	1027.8	1017.4
828.862	1022.6	1031
829.261	1024.8	1014.6
829.682	1004.8	1002
830.081	1012.4	1012.4
830.502	992.4	981.2
830.901	1002.4	981
831.301	995	1000.6
831.722	962	952.4
832.121	976.4	977.8
832.521	947.4	966.4
832.943	955.2	958.2
833.342	957.8	952.2
833.742	928.6	944.2
834.164	943.4	939.8
834.564	928.6	934
834.965	926.2	927.6
835.386	924	913.8
835.787	919.8	920.4
836.188	918.4	915.8
836.588	919	921.8
837.01	907	902.2
837.411	902	890.8
837.812	902	914.2
838.213	897.2	896.8
838.636	892	887.6
839.037	962.4	948.4
839.438	891.6	891.6
839.84	881.2	874.2
840.263	884.8	878.4
840.664	869.8	875.8
841.066	868	861
841.468	856.8	863.2
841.891	868.2	849.8
842.293	868.6	864.8
842.695	860.6	844
843.098	856.4	863
843.5	850.2	852.2
843.902	842.6	850.6
844.326	841.2	853
844.729	837.2	829.6
845.131	846.4	845
845.534	833.8	838
845.937	843	833
846.34	829.4	832.4
846.764	815.8	819.2
847.167	814	817
847.571	811.4	798.8
847.974	811.6	798
848.377	809.6	792.6
848.781	855.2	853
849.184	819.2	804.4
849.588	792.4	795.2
849.992	790.8	799.6
850.396	806.4	794.2
850.821	808.6	808.2
851.225	796	794.2
851.63	784.8	788.6
852.034	789.2	804
852.438	771.8	774.8
852.843	799	803
853.247	774.8	769
853.652	763.4	767.6
854.057	773.6	795
854.462	766.2	766.6
854.867	757.2	777
855.272	792.2	785.2
855.677	759	763.8
856.082	751.8	753
856.487	746.2	757.4
856.893	758.6	757.4
857.298	742.4	749.2
857.704	735.6	744.2
858.11	750.2	749.2
858.516	745.2	749.2
858.922	749.4	747.8
859.328	743.2	751
859.734	736.4	732.2
860.14	745	752.4
860.525	739	731.2
860.931	723.6	727.4
861.338	727	727.8
861.745	730.4	717.4
862.151	736.4	732.6
862.558	724.8	726.8
862.965	723.2	716.8
863.372	709.4	713.8
863.779	714.8	714.6
864.186	726.2	738.8
864.572	721.2	719.8
864.98	721.8	731
865.387	735	735.2
865.795	699	698.6
866.203	707	718.2
866.61	696.8	697.6
867.018	713	720.6
867.405	714.8	718.2
867.813	693.2	713
868.221	705	702.2
868.63	686.8	700.6
869.038	710.6	709
869.425	731.4	728
869.834	694	702.6
870.243	683.6	686.8
870.652	684	698.2
871.039	695.8	682.4
871.448	681.6	698.2
871.857	687	693.4
872.266	694	694.4
872.654	686.8	682.8
873.064	681.4	690
873.473	685.2	696.2
873.883	669.2	668.2
874.271	676.8	675
874.681	676.2	684.4
875.091	660.8	672
875.48	685.8	688.2
875.89	692.6	695.6
876.3	664.2	672.6
876.689	669.6	660.6
877.1	671	673.4
877.51	677	678
877.9	687	681
878.31	663.2	664.4
878.721	701.8	686.2
879.111	672.8	673.6
879.522	666.8	665
879.933	655	652.4
880.323	650.8	651.2
880.734	651	658.2
881.125	655	656.2
881.536	652.2	658
881.948	662	656.6
882.338	665.4	646
882.75	664.4	674.2
883.141	640.6	651.4
883.553	659.2	651.4
883.944	674.6	675.2
884.356	653.6	652.6
884.769	648.6	650.2
885.16	641.2	648
885.573	642.4	648
885.964	632.8	646.2
886.377	644.6	646.6
886.768	628.4	639.4
887.181	642.8	639.4
887.573	632.2	630.6
887.987	650.4	646.8
888.378	648.6	647.6
888.792	642.6	647.2
889.184	685.8	688.8
889.598	621.2	632.4
889.99	638.6	626.8
890.383	633.6	626.2
890.797	622.2	620.4
891.19	637	648
891.604	622.6	633.2
891.997	623	619.6
892.411	632.6	623.4
892.805	616.8	623.8
893.198	629.8	628.2
893.613	619.2	612.6
894.006	625.2	624
894.421	619.2	621
894.815	623.2	625.4
895.209	611.6	624
895.624	662.8	665.2
896.018	646.2	632.6
896.412	620.8	618
896.828	617.6	610.4
897.222	623.8	623.8
897.617	617.8	616.2
898.033	629.2	628
898.427	619.6	611
898.822	616.6	617.4
899.239	615.6	602
899.634	610.4	600.8
900.029	628.4	633.2
900.424	605.2	607.8
900.841	592.6	597.8
901.236	625.2	619.8
901.632	623.2	618.2
902.027	659	661
902.445	612.4	615
902.841	608.4	611.2
903.237	606.6	598.2
903.633	616.8	624.6
904.05	617	608.2
904.447	611.2	606.8
904.843	616.2	608
905.24	602.6	608.4
905.636	585.2	589.8
906.033	600.6	592.6
906.451	605.4	618.8
906.848	589.6	593.2
907.246	596.4	604.2
907.643	603.4	599.4
908.04	603.4	604
908.438	615.8	610
908.835	598.8	602.4
909.254	593	594.6
909.652	602.6	594.2
910.05	601.8	603.2
910.448	592.2	588.6
910.846	601.6	597
911.244	580	585.4
911.643	594.4	601.2
912.041	588.6	589.2
912.44	602.8	603.6
912.839	589.4	585.4
913.237	597.4	589.2
913.636	593.4	576.8
914.035	606.8	596
914.434	594.4	582
914.834	602	595.6
915.233	596.8	602.2
915.633	595.4	587.2
916.032	592.4	581.6
916.432	591.8	585.8
916.832	602	603.8
917.232	583.6	579.6
917.632	581.8	583
918.032	586.6	595
918.432	581.6	596
918.833	586.6	586.8
919.233	579.8	583
919.634	576.2	570.4
920.035	598.6	590.2
920.436	581.4	576.4
920.837	583.2	589.4
921.238	584	581.2
921.639	592.4	580.8
922.019	581.6	588.6
922.42	591.8	588.2
922.822	585.2	589
923.224	581.4	580.2
923.625	578.4	576
924.027	577.6	582.8
924.429	591.4	601.4
924.81	578.2	583.6
925.212	585.4	583.6
925.615	579.2	589.2
926.017	574.2	585.8
926.42	593.6	586
926.801	587.6	585.8
927.204	577.6	579
927.607	592.2	596.8
928.01	602	592.2
928.413	578.8	582.8
928.795	563	567
929.199	574	581.2
929.602	577.4	568.2
930.006	568.6	573.2
930.388	569.4	569
930.792	576.6	580.2
931.196	581.2	577.2
931.579	601.4	612.6
931.983	566.2	566.6
932.388	626.6	617.2
932.771	575.4	582.6
933.176	570.8	565.6
933.58	575.6	580
933.964	581.2	583.4
934.369	565.6	558.4
934.774	585.4	580
935.158	579.6	574
935.563	579.2	574
935.947	574.6	578
936.353	575.6	582.6
936.759	573.4	579.2
937.143	581.8	576.4
937.549	573.4	571.8
937.934	572.6	583.8
938.34	591.4	594.2
938.746	568.4	560.2
939.131	573	568.2
939.538	570.8	570
939.923	585	576.2
940.33	565.6	573.2
940.716	580.2	581.6
941.123	579	582.4
941.508	580.2	577
941.916	585.4	580.6
942.302	571.8	577.4
942.709	559.2	566.6
943.096	563.2	563.4
943.503	575	581.4
943.89	570.6	573.2
944.298	560.2	559.8
944.685	591	590.8
945.072	571.8	572.2
945.48	581.4	579
945.867	567.6	563.2
946.276	568.4	566
946.663	584.8	595.6
947.051	581.2	579.4
947.46	577	581.8
947.848	571.2	560.2
948.257	567.8	565.4
948.645	564	571
949.033	564.6	561.4
949.443	545	560.4
949.831	597.2	598.2
950.22	558.8	560.4
950.63	579	568.8
951.018	591	591.8
951.407	565.2	556.4
951.796	554.4	560
952.207	578.4	570
952.596	571.6	569
952.985	551.8	552.4
953.375	601	597.8
953.786	566.2	558.4
954.176	554.4	554.6
954.566	574.6	565.6
954.956	559.6	558.4
955.367	563.8	570
955.758	585.2	581.4
956.148	554.8	561.6
956.539	563.6	575
956.929	557.2	554.8
957.341	555.2	548.6
957.732	559.6	563.4
958.123	564.8	567
958.515	556.6	557.4
958.906	568.2	568.8
959.297	557.8	556.8
959.689	559.6	565.4
960.102	544.6	556.6
960.494	567	566
960.886	549.6	554.4
961.278	556.2	562.6
961.67	581.6	576.4
962.062	587.4	597.8
962.455	561.6	567.8
962.847	553.8	548
963.24	557.4	565.4
963.633	555.6	567
964.026	557.6	552
964.419	554.2	570.2
964.812	560	568.2
965.206	557.2	560.4
965.599	558.2	569.6
965.993	561.8	568.8
966.386	555.6	551.6
966.78	573.2	575.2
967.174	570.2	561.2
967.569	555	558
967.963	556	555.2
968.357	552.4	556.6
968.752	554.8	556.4
969.146	557.2	562.6
969.541	555	554.4
969.936	553.8	556.4
970.331	560.4	570.8
970.705	554.2	565.2
971.1	565.6	565.6
971.496	560.4	563.2
971.892	557.6	551.2
972.287	555.6	552
972.683	557.6	559.2
973.079	558.2	554.8
973.454	572.8	578.4
973.85	564.8	568
974.247	572.8	565
974.643	585.6	585.2
975.04	562.6	562.2
975.415	555.6	559
975.812	554.8	555.8
976.209	561.4	560.6
976.607	554.8	548.8
976.982	573.2	555.2
977.38	576	582.8
977.778	560.8	559.4
978.175	559.8	558.2
978.552	557.2	567
978.95	568.2	566
979.348	561.2	562.2
979.725	602.2	601
980.123	553	556
980.522	559.4	559.4
980.899	555	548
981.298	555.6	559
981.697	555.6	571.2
982.075	555.8	552.6
982.474	556.2	555
982.852	560.6	553
983.251	558.4	553.4
983.651	554.6	559.2
984.029	562.2	567.8
984.429	559.8	556.2
984.808	554.2	560
985.208	565.8	557.6
985.609	549.6	553.2
985.987	548.4	548
986.388	548.4	549.4
986.768	562.8	565
987.168	555.2	558.4
987.548	566.6	560
987.949	567.4	562.8
988.329	562	558.4
988.731	556.2	543.6
989.111	561.6	556.2
989.491	561.2	559.2
989.893	562.8	557.2
990.273	566	564.6
990.676	554.4	554.8
991.057	559.4	543
991.459	558.6	560
991.84	554.8	557.4
992.221	547.8	549.2
992.624	564.4	562.8
993.006	556	556
993.388	563	557.4
993.791	562.8	558.6
994.173	561.6	554.2
994.576	579.4	590
994.959	552.2	554
995.341	555	550
995.724	559.6	548.6
996.128	555.2	564.6
996.511	562.8	556.6
996.894	548.8	563.6
997.298	563.6	555
997.681	563	567.8
998.065	555.6	561.8
998.448	560	558.2
998.854	566.6	567
999.237	556.4	551
999.621	565	569.6
1000.01	574.2	573.4
1000.39	562.2	557.8
1000.8	552.8	552
1001.18	564.6	561.6
1001.56	564.2	563.6
1001.95	564.4	567
1002.33	565.4	563.8
1002.72	557	559.2
1003.13	551	556.2
1003.51	556.6	548.6
1003.9	546.8	547.4
1004.28	570	568.4
1004.67	549.6	559.2
1005.06	552.8	553.8
1005.44	589.8	582.4
1005.83	552.8	548.8
1006.21	560.6	560.2
1006.6	550.8	549.4
1006.99	571.8	561.4
1007.37	565	563.8
1007.76	558.6	552
1060.12	555.4	549.8
1060.51	557	554.6
1060.89	566.8	564.4
1061.28	575.4	572.6
1061.67	571.4	569.2
1062.06	559.4	565
1062.45	565	573
1062.83	559	554.2
1063.22	566.8	565.6
1063.61	598.4	590.2
1064	563.4	563
1064.39	555.2	556.8
1064.78	562.8	550.6
1065.14	571.2	570.4
1065.53	558.2	566.2
1065.92	553.6	564.8
1066.31	553.2	556.4
1066.7	557.8	564.2
1067.09	574.6	563.8
1067.46	565.2	558
1067.85	555.4	560.2
1068.24	558.2	566.4
1068.63	563.4	561.8
1069.02	554.8	554.4
1069.39	568.8	555.8
1069.78	567.2	553
1070.17	556	556.4
1070.57	552.4	553.6
1070.93	566.8	557
1071.33	548	560.6
1071.72	559.8	561.2
1072.11	556	553.6
1072.48	554.6	560.2
1072.87	559.2	571.4
1073.26	565.6	562
1073.64	559.4	560
1074.03	551.8	558.4
1074.4	552.6	561.4
1074.79	563.8	558.6
1075.19	564.6	564.6
1075.56	566.8	565.4
1075.95	566	563.2
1076.34	558.2	550.2
1076.72	556.4	559.2
1077.11	561	567.6
1077.48	569.4	571.4
1077.88	568.4	566.4
1078.25	559	560
1078.64	572.4	576.8
1079.02	560.6	560.4
1079.41	563	571.8
1079.78	560.4	556
1080.18	555.6	556.6
1080.55	624	620.4
1080.95	551.2	559.2
1081.32	554.2	563.2
1081.72	572.4	569
1082.09	556.6	559.8
1082.49	552.4	554
1082.86	566.2	562.8
1083.24	559.4	552.8
1083.63	554.6	552.6
1084.01	552.4	559.2
1084.38	572.2	570.8
1084.78	550	556.8
1085.16	565.2	570.6
1085.55	572.2	573
1085.93	587.6	572.6
1086.31	562.6	548.2
1086.7	585	593.2
1087.08	563.6	559.4
1087.46	567.8	556.4
1087.83	556.2	557.2
1088.23	567	570.6
1088.61	560.2	560.6
1088.99	564.8	567
1089.36	555.8	560.8
1089.76	561.8	556.4
1090.14	561	562.6
1090.52	563	567
1090.9	546.6	551.4
1091.27	572.4	581.8
1091.67	586.4	585
1092.05	563	567
1092.43	562.2	557.6
1092.81	572.2	572
1093.19	566.8	569.8
1093.57	555	552.6
1093.95	562.8	554.4
1094.35	569.2	576.8
1094.73	577.2	571.2
1095.11	551.8	553.8
1095.49	557.6	560
1095.87	567.2	561
1096.25	573.6	576.2
1096.63	565	576
1097.01	561.8	562.4
1097.39	573	564.8
1097.77	565.6	562.2
1098.15	555	566
1098.53	559.2	560.2
1098.91	560.4	554.8
1099.29	563	569.4
1099.68	569.6	586
1100.06	569.2	576.6
1100.44	563.8	564.8
1100.82	569.8	565.6
1101.18	567	569.8
1101.56	551.6	561.6
1101.95	563.2	559.8
1102.33	566.4	559.4
1102.71	568.8	560.2
1103.1	561.2	561.2
1103.48	548	557
1103.86	546.6	549.2
1104.22	560.2	568.4
1104.61	561.4	567.8
1104.99	554.6	565.6
1105.38	556.2	560.8
1105.76	556.8	559.2
1106.12	564.4	561.6
1106.51	590.8	601.2
1106.89	573.6	570.6
1107.26	566.4	565.4
1107.64	563.6	572.2
1108.03	560.6	563
1108.41	568	568.2
1108.78	568.2	570.4
1109.16	556.4	564.4
1109.55	583	568.6
1109.91	557.4	550.6
1110.3	551.2	552.8
1110.69	568	576.8
1111.05	554.6	559.8
1111.44	564	570.6
1111.8	559.6	565.2
1112.19	568.4	574.2
1112.58	565	565.2
1112.94	557.8	563.2
1113.33	562	568.4
1113.7	560.8	557
1114.09	567.2	562
1114.45	558.4	563.6
1114.84	559.6	567.8
1115.21	571.6	571
1115.6	556.6	561.6
1115.96	564.8	568.6
1116.35	560.4	564.8
1116.72	555.4	559.2
1117.11	575.8	575.6
1117.48	561.4	554
1117.85	565.4	563.4
1118.24	580.2	576.2
1118.6	567.8	572.4
1118.99	556	551.2
1119.36	569.4	572.6
1119.73	564.4	559.8
1120.12	560.4	562.8
1120.49	541	550
1120.86	574.6	575.2
1121.25	558.8	567.6
1121.62	556.8	557.6
1121.99	558.6	567
1122.38	574.6	563.8
1122.76	565	563.4
1123.13	557.6	553.4
1123.5	559.4	578.6
1123.89	567.6	574.6
1124.26	553.6	560.6
1124.63	563	565.8
1125	561	557.4
1125.4	551	555.6
1125.77	551.6	557.8
1126.14	547.4	550.8
1126.51	564.2	559.2
1126.88	564.6	563.4
1127.26	562.8	559
1127.63	545.6	549.2
1128.02	555	553.4
1128.4	549.2	551.4
1128.77	562.4	553
1129.14	552.4	554.4
1129.52	564.2	559.2
1129.89	571	565.4
1130.26	560.4	547.6
1130.64	550.8	551
1131.01	564	552.6
